# Step     T (K)     E_KS (eV)    E_tot (eV)   Vol (A^3)    P (kBar)
     1  13729.11    -898.21816    -892.89428    1000.001       7.319
     2  13893.01    -898.30265    -892.91522    1000.001       7.296
     3  14179.21    -898.43001    -892.93159    1000.001       6.464
     4  13967.93    -898.33305    -892.91656    1000.001       5.853
     5  13622.88    -898.18868    -892.90600    1000.001       5.433
     6  13550.15    -898.15822    -892.90374    1000.001       5.269
     7  13833.03    -898.27361    -892.90944    1000.001       5.508
     8  14233.97    -898.44366    -892.92401    1000.001       6.236
     9  14269.11    -898.46504    -892.93176    1000.001       7.403
    10  13916.45    -898.29619    -892.89967    1000.001       8.257
    11  13957.41    -898.32996    -892.91756    1000.001       7.792
    12  13997.08    -898.37129    -892.94351    1000.001       6.885
    13  13208.72    -898.05642    -892.93434    1000.001       6.623
    14  11782.54    -897.49453    -892.92549    1000.001       7.088
    15  10105.18    -896.83874    -892.92016    1000.001       8.083
    16   8540.18    -896.22162    -892.90990    1000.001       8.890
    17   7806.61    -895.94281    -892.91556    1000.001       8.609
    18   8652.73    -896.29667    -892.94131    1000.001       7.787
    19  10798.55    -897.18185    -892.99439    1000.001       6.975
    20  12755.99    -897.98489    -893.03837    1000.001       6.558
    21  13298.84    -898.17927    -893.02225    1000.001       6.282
    22  12794.16    -897.93219    -892.97087    1000.001       5.482
    23  12301.89    -897.76257    -892.99215    1000.001       4.087
    24  12004.06    -897.64861    -892.99367    1000.001       2.383
    25  11856.47    -897.57540    -892.97770    1000.001       0.993
    26  12361.17    -897.76053    -892.96712    1000.001       0.056
    27  13828.99    -898.34732    -892.98471    1000.001       0.000
    28  15431.68    -899.06287    -893.07877    1000.001       1.788
    29  14923.88    -898.83916    -893.05198    1000.001       6.067
    30  14858.39    -898.66018    -892.89840    1000.001       7.012
    31  16637.95    -899.56945    -893.11758    1000.001       3.147
    32  15626.01    -899.09972    -893.04026    1000.001       2.837
    33  12467.71    -897.83482    -893.00009    1000.001       4.307
    34   9117.73    -896.45926    -892.92359    1000.001       5.322
    35   7662.36    -895.89365    -892.92234    1000.001       3.764
    36   7794.29    -896.00149    -892.97902    1000.001       0.399
    37   7579.30    -895.91577    -892.97667    1000.001      -2.394
    38   6637.89    -895.53447    -892.96043    1000.001      -4.469
    39   5450.88    -895.06154    -892.94780    1000.001      -5.995
    40   4468.47    -894.67261    -892.93982    1000.001      -7.114
    41   3975.09    -894.47613    -892.93467    1000.001      -7.760
    42   4158.69    -894.54269    -892.93004    1000.001      -8.040
    43   5194.60    -894.93581    -892.92145    1000.001      -7.842
    44   7263.42    -895.73248    -892.91587    1000.001      -6.860
    45  10317.65    -896.93432    -892.93334    1000.001      -4.651
    46  13222.26    -898.16375    -893.03642    1000.001      -0.000
    47  12319.56    -897.95626    -893.17899    1000.001       8.844
    48   8523.21    -895.89631    -892.59118    1000.001      16.595
    49  12003.38    -897.83785    -893.18318    1000.001       8.074
    50  14471.12    -898.74578    -893.13417    1000.001       0.246
    51  11809.12    -897.57163    -892.99229    1000.001      -2.965
    52   8222.13    -896.14015    -892.95177    1000.001      -5.525
    53   5489.28    -895.07427    -892.94564    1000.001      -7.389
    54   3897.15    -894.45788    -892.94665    1000.001      -8.507
    55   3382.00    -894.25958    -892.94811    1000.001      -9.002
    56   3857.14    -894.44573    -892.95001    1000.001      -8.930
    57   5209.67    -894.97886    -892.95865    1000.001      -8.165
    58   7039.37    -895.71981    -892.99009    1000.001      -6.274
    59   8188.15    -896.21569    -893.04049    1000.001      -2.553
    60   8198.27    -896.08718    -892.90806    1000.001       2.012
    61  10579.61    -897.07236    -892.96980    1000.001       2.062
    62  14018.75    -898.55133    -893.11514    1000.001       0.852
    63  13455.64    -898.37036    -893.15253    1000.001       3.776
    64   9624.57    -896.55272    -892.82051    1000.001       7.934
    65   9403.00    -896.67203    -893.02574    1000.001       4.447
    66  10505.33    -897.11837    -893.04461    1000.001       0.035
    67   9799.96    -896.77832    -892.97809    1000.001      -1.816
    68   8943.72    -896.43488    -892.96668    1000.001      -3.385
    69   8655.02    -896.32802    -892.97178    1000.001      -4.568
    70   8921.69    -896.44422    -892.98456    1000.001      -4.767
    71   9266.65    -896.62105    -893.02763    1000.001      -3.294
    72   8524.00    -896.35637    -893.05093    1000.001       0.102
    73   7560.90    -895.82794    -892.89598    1000.001       2.618
    74   9197.82    -896.63714    -893.07041    1000.001      -0.060
    75  10620.44    -897.19555    -893.07715    1000.001      -2.592
    76  10391.14    -897.05821    -893.02874    1000.001      -3.442
    77   9888.71    -896.83219    -892.99754    1000.001      -3.441
    78   9804.80    -896.80162    -892.99951    1000.001      -2.133
    79   9648.24    -896.76962    -893.02823    1000.001       0.442
    80   8547.52    -896.32355    -893.00899    1000.001       3.961
    81   7450.74    -895.82152    -892.93227    1000.001       6.055
    82   7841.11    -896.02751    -892.98689    1000.001       5.111
    83   8501.61    -896.26813    -892.97137    1000.001       3.918
    84   8804.59    -896.35929    -892.94504    1000.001       3.267
    85   9008.76    -896.45008    -892.95667    1000.001       2.847
    86   9066.01    -896.49517    -892.97955    1000.001       2.838
    87   8819.59    -896.42068    -893.00062    1000.001       3.308
    88   8190.70    -896.18633    -893.01014    1000.001       4.214
    89   7225.62    -895.80609    -893.00413    1000.001       5.353
    90   6116.17    -895.35571    -892.98398    1000.001       6.388
    91   5155.11    -894.96004    -892.96100    1000.001       6.942
    92   4594.96    -894.72917    -892.94733    1000.001       6.768
    93   4494.55    -894.68790    -892.94500    1000.001       5.867
    94   4705.27    -894.77299    -892.94838    1000.001       4.493
    95   5006.72    -894.89277    -892.95126    1000.001       2.939
    96   5254.44    -894.98889    -892.95132    1000.001       1.436
    97   5432.13    -895.05495    -892.94847    1000.001       0.112
    98   5628.92    -895.12631    -892.94352    1000.001      -0.929
    99   5994.54    -895.26308    -892.93852    1000.001      -1.567
   100   6617.53    -895.51426    -892.94812    1000.001      -1.483
